
3-Aminoisobutanoic acid
1DNMR spectrum600MHz in H2O 
Sample 25mM at PH 7.0
Reference to DSS


Table of Peaks
No. 	(ppm) 	(Hz) 	Height
1 	1.175 	705.57 	1.0000
2 	1.188 	713.06 	0.9880
3 	1.751 	1051.10 	0.0178
4 	2.573 	1544.95 	0.0160
5 	2.586 	1552.44 	0.0578
6 	2.595 	1557.72 	0.0580
7 	2.600 	1560.80 	0.0758
8 	2.609 	1566.08 	0.0683
9 	2.612 	1568.28 	0.0637
10 	2.621 	1573.56 	0.0611
11 	2.633 	1580.61 	0.0161
12 	2.899 	1740.38 	0.0339
13 	2.912 	1748.31 	0.0258
14 	2.925 	1756.23 	0.0323
15 	3.002 	1802.44 	0.1287
16 	3.011 	1807.73 	0.1224
17 	3.024 	1815.21 	0.2186
18 	3.032 	1820.49 	0.1941
19 	3.081 	1849.54 	0.1906
20 	3.095 	1857.90 	0.1977
21 	3.102 	1862.31 	0.1197
22 	3.116 	1870.67 	0.1237

 
Table of Assignments
No. 	Atom 	Multiplet
1 	7 	M04
2 	4 	M03
3 	5 	M02
4 	5 	M01


Table of Multiplets
No. 	Hs 	Type 	J (Hz) 	Atom1 	Multiplet1 	 (ppm)
1 	3 	d 	7.48 	7 	M04 	1.16 .. 1.21
2 	1 	m 	- 	4 	M03 	2.57 .. 2.64
3 	1 	dd 	5.28 	5 	M02 	3.00 .. 3.05
4 	1 	dd 	8.36 	5 	M01 	3.06 .. 3.16