L-Histidinol
HMDB03431 
1DNMR spectrum600M Hz in H2O 
Sample 50mM at PH 7.0
 Reference to DSS

Table of Peaks 
No. 	(ppm) 	(Hz) 	Height
1 	3.026 	1816.53 	0.0941
2 	3.038 	1823.57 	0.1076
3 	3.052 	1831.94 	0.3240
4 	3.063 	1838.98 	0.3364
5 	3.076 	1846.90 	0.2702
6 	3.082 	1849.98 	0.1822
7 	3.087 	1853.50 	0.2839
8 	3.102 	1862.31 	0.1191
9 	3.113 	1868.91 	0.1160
10 	3.638 	2184.06 	0.1939
11 	3.642 	2186.70 	0.1852
12 	3.649 	2190.66 	0.2880
13 	3.654 	2193.74 	0.5756
14 	3.660 	2197.27 	0.4024
15 	3.674 	2205.63 	0.4285
16 	3.685 	2212.23 	0.2195
17 	3.828 	2298.06 	0.2203
18 	3.833 	2301.14 	0.3618
19 	3.847 	2309.51 	0.2896
20 	3.851 	2312.15 	0.1820
21 	7.235 	4343.47 	0.9735
22 	8.195 	4919.64 	1.0000

Table of Multiplets
No. 	Hs 	Type 	J (Hz) 	Atom1 	Multiplet1 	 (ppm)
1 	1 	dd 	14.75 6.82 	6 	M01 	2.97 .. 3.20
2 	1 	m 	- 	6 	M02 	2.97 .. 3.20
3 	2 	m 	- 	9 	M03 	3.51 .. 3.75
4 	1 	m 	- 	7 	M04 	3.75 .. 3.99
5 	1 	s 	- 	5 	M05 	7.13 .. 7.33
6 	1 	s 	- 	2 	M06 	8.10 .. 8.30

Table of Assignments
No. 	Atom 	Multiplet
1 	6 	M01
2 	6 	M02
3 	9 	M03
4 	7 	M04
5 	5 	M05
6 	2 	M06
