List of Peaks
No.	(ppm)	(Hz)	Height
1	3.847	2306.0	1.0000
2	4.885	2927.8	0.0427
3	6.868	4116.8	0.0644
4	6.881	4124.7	0.3223
5	6.886	4127.8	0.1900
6	6.889	4129.6	0.1878
7	6.900	4135.9	0.0323
8	6.903	4137.7	0.0416
9	7.023	4209.6	0.1897
10	7.025	4211.1	0.1899

List of Mulitplets
No.	Shift1 (ppm)	Hs	Type	J (Hz)	Atom1	Multiplet1	 (ppm)
1	3.847	4	s	-	8	M01	3.801 .. 3.855
2	4.885	1	s	-	10	M04	4.872 .. 4.894
3	6.888	4	m	-	4 3	M02	6.866 .. 6.906
4	7.024	2	d	1.54	6	M03	7.001 .. 7.034

List of Assignments
No.	Atom	Exp. Shift (ppm)	Multiplet
1	19	3.847	M01
2	14	4.885	M04
3	16	6.888	M02
4	17	6.888	M02
5	15	7.024	M03
