List of Peaks
No.	(ppm)	(Hz)	Height
1	1.702	850.9	0.0534
2	1.717	858.3	0.0765
3	1.721	860.3	0.0840
4	1.729	864.3	0.0904
5	1.735	867.4	0.1231
6	1.742	870.5	0.1001
7	1.744	871.8	0.0886
8	1.750	874.9	0.1243
9	1.756	877.9	0.0600
10	1.763	881.0	0.1065
11	1.777	888.1	0.0656
12	1.789	894.0	0.0943
13	1.794	896.6	0.0547
14	1.803	901.1	0.1274
15	1.808	903.7	0.1228
16	1.818	908.6	0.1139
17	1.822	910.7	0.1373
18	1.831	915.4	0.1098
19	1.837	918.2	0.0744
20	1.848	923.7	0.0979
21	1.908	953.9	0.2146
22	1.911	955.2	0.1966
23	1.921	959.9	0.3623
24	1.923	961.2	0.3272
25	1.925	962.3	0.3074
26	1.933	966.0	0.2664
27	1.938	968.7	0.3494
28	1.944	971.8	0.2207
29	1.952	975.7	0.1365
30	1.957	978.2	0.1268
31	3.033	1516.0	0.5597
32	3.048	1523.5	1.0000
33	3.063	1531.2	0.5159
34	3.765	1881.9	0.2687
35	3.777	1888.0	0.5530
36	3.789	1894.0	0.2792

List of Multiplets
No.	Shift1 (ppm)	Hs	Type	Atom1	Multiplet1	 (ppm)
1	1.727	2	m	7	M05	1.676 .. 1.778
2	1.826	2	m	7	M04	1.775 .. 1.877
3	1.933	3	m	6	M03	1.883 .. 1.983
4	3.046	3	t	8	M02	3.008 .. 3.083
5	3.774	1	t	4	M01	3.737 .. 3.811

List of Assignments
No.	Atom	Exp. Shift (ppm)	Multiplet
1	11	1.727	M05
2	12	1.826	M04
3	9	1.933	M03
4	14	3.046	M02
5	13	3.774	M01
