List of Peaks
No.	(ppm)	(Hz)	Height
1	3.353	1675.9	0.0802
2	3.783	1891.1	0.1912
3	3.793	1895.6	0.1935
4	3.809	1903.9	0.2884
5	3.818	1908.4	0.2966
6	3.891	1944.8	0.2677
7	3.897	1947.8	0.2825
8	3.917	1957.6	0.1606
9	3.923	1960.6	0.1816
10	4.108	2053.5	0.0813
11	4.114	2056.4	0.1074
12	4.119	2058.7	0.1380
13	4.125	2061.7	0.1542
14	4.128	2063.3	0.1254
15	4.134	2066.3	0.0869
16	4.210	2104.1	0.1488
17	4.220	2109.5	0.3037
18	4.231	2115.0	0.1418
19	4.335	2166.5	0.1007
20	4.344	2171.5	0.1538
21	4.354	2176.3	0.0859
22	5.882	2940.1	0.6368
23	5.898	2947.8	1.0000
24	5.906	2951.8	0.5591
25	7.856	3926.6	0.9103
26	7.872	3934.7	0.8550

List of Multiplets
No.	Shift1 (ppm)	Hs	Type	J (Hz)	Atom1	Multiplet1	 (ppm)
1	3.801	1	dd	12.77 4.49	14	M08	3.777 .. 3.824
2	3.907	1	dd	-	14	M07	3.883 .. 3.930
3	4.121	1	m	-	5	M06	4.101 .. 4.141
4	4.220	1	dd	-	4	M05	4.205 .. 4.237
5	4.344	1	dd	-	3	M04	4.329 .. 4.361
6	5.882	2	d	-	10	M02	5.878 .. 5.901
7	5.902	3	d	-	2	M01	5.893 .. 5.911
8	7.864	2	d	8.10	11	M03	7.849 .. 7.879

List of Assignments
No.	Atom	Exp. Shift (ppm)	Multiplet
1	21	3.801	M08
2	22	3.907	M07
3	20	4.121	M06
4	18	4.220	M05
5	17	4.344	M04
6	28	5.882	M02
7	19	5.902	M01
8	25	7.864	M03
