List of Peaks
No.	(ppm)	(Hz)	Height
1	3.838	1918.2	0.1104
2	3.845	1921.9	0.1066
3	3.864	1931.2	0.1745
4	3.871	1934.7	0.1520
5	3.924	1961.3	0.1945
6	3.929	1964.1	0.1892
7	3.950	1974.1	0.0998
8	3.955	1976.9	0.0930
9	4.291	2144.6	0.0509
10	4.297	2147.9	0.1387
11	4.304	2151.0	0.1273
12	4.310	2154.3	0.0430
13	4.429	2214.0	0.0731
14	4.436	2217.3	0.0670
15	4.439	2218.9	0.0753
16	4.446	2222.5	0.0750
17	4.808	2403.0	0.0932
18	6.015	3006.5	0.3900
19	6.027	3012.5	0.3754
20	8.117	4056.9	1.0000
21	8.281	4139.3	0.9759

List of Multiplets
No.	Shift1 (ppm)	Hs	Type	J (Hz)	Atom1	Multiplet1	 (ppm)
1	3.857	1	dd	12.91 3.57	17	M08	3.830 .. 3.878
2	3.937	1	dd	12.82 2.79	17	M07	3.912 .. 3.964
3	4.300	1	q	3.30	5	M06	4.287 .. 4.313
4	4.438	1	dd	5.03 3.45	4	M05	4.426 .. 4.451
5	4.808	1	s	-	3	M04	4.800 .. 4.817
6	6.021	1	d	6.07	2	M03	6.009 .. 6.032
7	8.117	1	s	-	7	M02	8.109 .. 8.125
8	8.281	1	s	-	12	M01	8.274 .. 8.290

List of Assignments
No.	Atom	Exp. Shift (ppm)	Multiplet
1	23	3.857	M08
2	24	3.937	M07
3	22	4.300	M06
4	21	4.438	M05
5	19	4.808	M04
6	20	6.021	M03
7	27	8.117	M02
8	29	8.281	M01
