List of Peaks
No.	(ppm)	(Hz)	Height
1	2.070	1034.4	1.0000
2	3.527	1762.8	0.0732
3	3.546	1772.2	0.1102
4	3.565	1782.1	0.0892
5	3.782	1890.6	0.0746
6	3.794	1896.4	0.0519
7	3.803	1901.0	0.0936
8	3.810	1904.5	0.0705
9	3.821	1909.8	0.0979
10	3.852	1925.4	0.0645
11	3.856	1927.6	0.0823
12	3.877	1937.6	0.0416
13	3.881	1940.0	0.0449
14	3.899	1949.0	0.0435
15	3.904	1951.2	0.0457
16	3.908	1953.4	0.0439
17	3.912	1955.4	0.0389
18	3.919	1959.0	0.0395
19	3.924	1961.4	0.0438
20	3.928	1963.4	0.0398
21	3.933	1965.6	0.0360
22	3.956	1977.2	0.0294
23	3.962	1980.3	0.0417
24	3.968	1983.4	0.0338
25	3.975	1986.7	0.0366
26	3.981	1990.0	0.0485
27	3.988	1993.1	0.0363
28	3.996	1997.1	0.0284
29	4.002	2000.2	0.0336
30	4.008	2003.1	0.0248
31	4.155	2076.7	0.0238
32	4.161	2079.8	0.0276
33	4.167	2082.6	0.0250
34	4.172	2085.5	0.0255
35	4.179	2088.6	0.0354
36	4.185	2091.7	0.0370
37	4.190	2094.3	0.0346
38	4.196	2097.2	0.0332
39	4.216	2107.5	0.0312
40	4.222	2110.0	0.0356
41	4.226	2112.0	0.0334
42	4.231	2114.6	0.0377
43	4.240	2119.4	0.0225
44	4.245	2121.7	0.0255
45	4.249	2123.8	0.0230
46	4.254	2126.5	0.0258
47	4.276	2137.5	0.0425
48	4.282	2140.2	0.0359
49	4.343	2170.8	0.0290
50	4.353	2175.9	0.0545
51	4.359	2178.8	0.0724
52	4.366	2182.3	0.0556
53	4.377	2187.6	0.0256
54	5.492	2745.1	0.0560
55	5.499	2748.4	0.0569
56	5.506	2752.2	0.0630
57	5.513	2755.5	0.0586
58	5.952	2975.2	0.1808
59	5.966	2981.9	0.1632
60	5.968	2983.2	0.2300
61	5.974	2986.1	0.1319
62	7.934	3965.9	0.2409
63	7.951	3973.9	0.2353
64	8.334	4165.7	0.0636
65	8.353	4175.0	0.0609

List of Multiplets
No.	Shift1 (ppm)	Hs	Type	J (Hz)	Atom1	Multiplet1	 (ppm)
1	2.070	1	s	-	21	M03	2.045 .. 2.089
2	3.555	1	dd	-	5	M02	3.521 .. 3.571
3	3.802	1	m	-	4 15	M14	3.776 .. 3.829
4	3.867	1	dd	-	15	M05	3.842 .. 3.888
5	3.916	1	m	-	6	M15	3.893 .. 3.939
6	3.978	2	ddd	13.22 6.73 3.11	3	M06	3.953 .. 4.012
7	4.176	1	m	-	23	M16	4.144 .. 4.206
8	4.235	1	m	-	23	M04	4.211 .. 4.258
9	4.279	1	m	-	24	M07	4.259 .. 4.298
10	4.358	1	m	-	28 27	M09	4.323 .. 4.396
11	5.503	2	dd	7.14 3.29	2	M10	5.468 .. 5.525
12	5.952	1	d	8.05	34	M12	5.950 .. 5.970
13	5.970	1	d	8.05	26	M11	5.961 .. 5.980
14	7.942	2	d	8.05	35	M13	7.908 .. 7.960
15	8.341	1	d	-	10	M08	8.315 .. 8.367

List of Assignments
No.	Atom	Exp. Shift (ppm)	Multiplet
1	61	2.070	M03
2	42	3.555	M02
3	40	3.802	M14
4	50	3.802	M14
5	51	3.867	M05
6	46	3.916	M15
7	39	3.978	M06
8	48	4.176	M16
9	49	4.235	M04
10	44	4.279	M07
11	41	4.358	M09
12	43	4.358	M09
13	47	5.503	M10
14	60	5.952	M12
15	45	5.970	M11
16	57	7.942	M13
17	52	8.341	M08
