     Phosphorylcholine 
     HMDB01565 
     1DNMR spectrum600MHz in H2O 
     25mM at PH 7.0 
     Reference to DSS
     Table of Peaks
     No. 	(ppm) 	(Hz) 	Height
     1 	3.208 	1926.13 	1.0000
     2 	3.578 	2147.97 	0.0507
     3 	3.582 	2150.61 	0.0338
     4 	3.585 	2152.37 	0.0523
     5 	3.590 	2155.01 	0.0337
     6 	3.593 	2157.21 	0.0549
     7 	4.145 	2488.65 	0.0111
     8 	4.150 	2491.29 	0.0183
     9 	4.154 	2493.93 	0.0335
     10 	4.159 	2496.57 	0.0331
     11 	4.162 	2498.77 	0.0377
     12 	4.166 	2500.97 	0.0333
     13 	4.171 	2504.06 	0.0319
     14 	4.176 	2506.70 	0.0178
     15 	4.180 	2509.34 	0.0104
     
     Table of Multuplets
     No. 	Hs 	Type 	J (Hz) 	Atom1 	Multiplet1 	 (ppm)
     1 	9 	s 	- 	11 6 10 	M03 	3.12 .. 3.31
     2 	2 	t 	2.20 	4 	M02 	3.49 .. 3.67
     3 	2 	dddd 	7.59 5.39 5.06 2.64 	3 	M01 	3.95 .. 4.34
     
        Table of Assignments
     No. 	Atom 	Multiplet
     1 	11 	M03
     2 	6 	M03
     3 	10 	M03
     4 	4 	M02
     5 	3 	M01
