List of Peaks
No.	(ppm)	(Hz)	Height
1	3.812	1905.4	0.0940
2	3.820	1909.4	0.0834
3	3.838	1918.2	0.1567
4	3.846	1922.2	0.1734
5	3.889	1943.7	0.1569
6	3.895	1946.7	0.1844
7	3.914	1956.5	0.0921
8	3.920	1959.5	0.0850
9	4.246	2122.5	0.0349
10	4.254	2126.4	0.0828
11	4.260	2129.5	0.0850
12	4.268	2133.4	0.0383
13	4.411	2204.8	0.0429
14	4.419	2208.8	0.0356
15	4.421	2209.9	0.0422
16	4.429	2213.7	0.0359
17	4.798	2398.2	-0.0100
18	6.049	3023.6	0.3692
19	6.061	3029.2	0.3641
20	8.187	4092.1	1.0000
21	8.305	4151.2	0.8684

List of Multiplets
No.	Shift1 (ppm)	Hs	Type	J (Hz)	Atom1	Multiplet1	 (ppm)
1	3.832	1	dd	12.77 4.03	17	M07	3.809 .. 3.851
2	3.902	1	dd	12.77 3.00	17	M06	3.882 .. 3.928
3	4.257	1	dd	7.05 3.09	5	M05	4.243 .. 4.274
4	4.420	1	dd	4.99 3.96	4	M04	4.407 .. 4.434
5	4.798	1	s	-	3	M08	4.792 .. 4.802
6	6.055	1	d	5.68	2	M03	6.041 .. 6.069
7	8.187	1	s	-	7	M02	8.178 .. 8.196
8	8.305	1	s	-	12	M01	8.299 .. 8.312

List of Assignments
No.	Atom	Exp. Shift (ppm)	Multiplet
1	17	3.832	M07
2	17	3.902	M06
3	5	4.257	M05
4	4	4.420	M04
5	3	4.798	M08
6	2	6.055	M03
7	7	8.187	M02
8	12	8.305	M01
