D-Arabitol 
HMDB00568 
1DNMR spectrum600MHz in H2O 
Sample 50mM at PH 7.0 
Reference to DSS

Table of Multiplets
No. 	Hs 	Type 	J (Hz) 	Atom1 	Multiplet1 	 (ppm)
1 	1 	dd 	8.36 1.76 	5 	M01 	3.54 .. 3.60
2 	3 	m 	- 	3 9 	M02 	3.63 .. 3.71
3 	1 	m 	- 	2 	M03 	3.72 .. 3.79
4 	1 	dd 	11.88 3.08 	3 	M04 	3.81 .. 3.87
5 	1 	ddd 	7.04 5.28 1.76 	7 	M05 	3.90 .. 3.98

Table of Peaks
No. 	(ppm) 	(Hz) 	Height
1 	3.566 	2140.93 	0.4267
2 	3.569 	2142.69 	0.4343
3 	3.580 	2149.29 	0.5011
4 	3.583 	2151.05 	0.4983
5 	3.648 	2189.78 	0.3207
6 	3.658 	2195.95 	0.4319
7 	3.664 	2199.47 	0.6639
8 	3.667 	2201.67 	0.5139
9 	3.671 	2203.87 	0.7132
10 	3.676 	2206.95 	1.0000
11 	3.678 	2208.27 	0.8630
12 	3.690 	2215.31 	0.1229
13 	3.700 	2221.03 	0.0853
14 	3.739 	2244.80 	0.2469
15 	3.744 	2247.88 	0.2819
16 	3.754 	2253.61 	0.3727
17 	3.758 	2256.25 	0.2685
18 	3.764 	2259.77 	0.1806
19 	3.769 	2262.41 	0.1958
20 	3.824 	2295.42 	0.4496
21 	3.829 	2298.50 	0.4110
22 	3.843 	2307.31 	0.3669
23 	3.849 	2310.39 	0.3266
24 	3.925 	2356.16 	0.2490
25 	3.928 	2357.92 	0.2491
26 	3.934 	2361.44 	0.3342
27 	3.936 	2363.21 	0.4793
28 	3.939 	2364.97 	0.2631
29 	3.945 	2368.49 	0.2364
30 	3.948 	2370.25 	0.2062

Table of Assignments
No. 	Atom 	Multiplet
1 	5 	M01
2 	3 	M02
3 	9 	M02
4 	2 	M03
5 	3 	M04
6 	7 	M05
